# wireless pH sensor data log
# Date: 20171019_20_54_42
# Temperature (â„ƒ), Voltage of RE (mV), Voltage of WE_Cl after TIA (mV), Voltage of WE_pH (mV), Free Cl Current (nA), pH Voltage (mV), Free Cl (ppm), pH Value
# 
25.37    1499.5    1499.625    1245.625    -0.1524390243902439    -253.875    -0.219393130307    6.14
25.37    1499.5    1499.375    1234.0    0.1524390243902439    -265.5    -0.230146015828    6.56
-1000.0    1499.375    1499.5    1234.625    -0.1524390243902439    -264.75    -0.266815205469    7.0
-1000.0    1499.375    1499.75    1254.0    -0.4573170731707317    -245.375    -0.379301999813    7.47
-1000.0    1499.375    1499.75    1255.375    -0.4573170731707317    -244.0    -0.677944730279    7.91
-1000.0    1499.375    1499.75    1258.125    -0.4573170731707317    -241.25    -1.47127196045    8.34
-1000.0    1499.375    1499.75    1259.25    -0.4573170731707317    -240.125    -3.60728193952    8.77
-1000.0    1499.375    1499.75    1259.125    -0.4573170731707317    -240.25    -9.35867435878    9.2
-1000.0    1499.375    1499.75    1258.125    -0.4573170731707317    -241.25    -24.8450454499    9.63
-1000.0    1499.375    1499.75    1258.5    -0.4573170731707317    -240.875    -66.5443538717    10.06
-1000.0    1499.5    1499.75    1258.125    -0.3048780487804878    -241.375    -178.826042366    10.49
-1000.0    1499.375    1499.75    1258.125    -0.4573170731707317    -241.25    -170.810670403    10.47
-1000.0    1499.375    1499.75    1257.5    -0.4573170731707317    -241.875    -155.886050673    10.43
-1000.0    1499.375    1499.75    1258.0    -0.4573170731707317    -241.375    -138.994933185    10.38
-1000.0    1499.375    1499.625    1252.75    -0.3048780487804878    -246.625    -138.994933185    10.38
-1000.0    1499.375    1499.625    1258.375    -0.3048780487804878    -241.0    -138.975678502    10.38
-1000.0    1499.375    1499.75    1258.0    -0.4573170731707317    -241.375    -138.956423819    10.38
-1000.0    1499.5    1499.875    1263.625    -0.4573170731707317    -235.875    -138.956423819    10.38
-1000.0    1499.375    1499.75    1267.125    -0.4573170731707317    -232.25    -138.956423819    10.38
-1000.0    1499.375    1499.75    1264.125    -0.4573170731707317    -235.25    -132.711805096    10.36
-1000.0    1499.5    1499.75    1266.0    -0.3048780487804878    -233.5    -129.695695284    10.35
-1000.0    1499.5    1499.75    1263.5    -0.3048780487804878    -236.0    -126.748240513    10.34
-1000.0    1499.375    1499.875    1258.625    -0.6097560975609756    -240.75    -123.850714085    10.33
-1000.0    1499.375    1499.75    1259.25    -0.4573170731707317    -240.125    -123.867878004    10.33
-1000.0    1499.375    1499.875    1257.375    -0.6097560975609756    -242.0    -121.05308055    10.32
-1000.0    1499.375    1499.75    1257.125    -0.4573170731707317    -242.25    -118.335141157    10.31
-1000.0    1499.375    1499.75    1257.625    -0.4573170731707317    -241.75    -121.103402196    10.32
-1000.0    1499.5    1499.75    1260.125    -0.3048780487804878    -239.375    -121.103402196    10.32
-1000.0    1499.5    1499.75    1260.5    -0.3048780487804878    -239.0    -121.086628314    10.32
-1000.0    1499.375    1499.625    1263.125    -0.3048780487804878    -236.25    -126.765803552    10.34
-1000.0    1499.5    1499.75    1262.5    -0.3048780487804878    -237.0    -126.748240513    10.34
-1000.0    1499.5    1499.75    1262.375    -0.3048780487804878    -237.125    -126.748240513    10.34
-1000.0    1499.375    1499.75    1260.625    -0.4573170731707317    -238.75    -129.695695284    10.35
-1000.0    1499.375    1499.75    1263.125    -0.4573170731707317    -236.25    -126.730677473    10.34
-1000.0    1499.5    1499.75    1263.375    -0.3048780487804878    -236.125    -126.730677473    10.34
-1000.0    1499.375    1499.75    1261.5    -0.4573170731707317    -237.875    -121.002758904    10.32
-1000.0    1499.5    1499.75    1260.375    -0.3048780487804878    -239.125    -121.002758904    10.32
-1000.0    1499.375    1499.75    1262.25    -0.4573170731707317    -237.125    -118.236784812    10.31
-1000.0    1499.5    1499.75    1260.25    -0.3048780487804878    -239.25    -118.253177536    10.31
-1000.0    1499.375    1499.75    1261.0    -0.4573170731707317    -238.375    -118.253177536    10.31
-1000.0    1499.5    1499.625    1251.25    -0.1524390243902439    -248.25    -118.26957026    10.31
-1000.0    1499.5    1499.875    1260.75    -0.4573170731707317    -238.75    -123.816386249    10.33
-1000.0    1499.5    1499.875    1251.625    -0.4573170731707317    -247.875    -126.713114434    10.34
-1000.0    1499.375    1499.875    1265.125    -0.6097560975609756    -234.25    -129.659752369    10.35
-1000.0    1499.375    1499.75    1261.0    -0.4573170731707317    -238.375    -129.677723826    10.35
-1000.0    1499.375    1499.75    1260.25    -0.4573170731707317    -239.125    -129.695695284    10.35
-1000.0    1499.375    1499.75    1258.625    -0.4573170731707317    -240.75    -129.695695284    10.35
-1000.0    1499.375    1499.625    1258.625    -0.3048780487804878    -240.75    -132.730194485    10.36
-1000.0    1499.375    1499.625    1258.5    -0.3048780487804878    -240.875    -132.711805096    10.36
-1000.0    1499.375    1499.625    1259.0    -0.3048780487804878    -240.375    -135.798169131    10.37
-1000.0    1499.375    1499.75    1258.375    -0.4573170731707317    -241.0    -135.779352076    10.37
-1000.0    1499.375    1499.625    1258.5    -0.3048780487804878    -240.875    -132.730194485    10.36
-1000.0    1499.375    1499.625    1265.25    -0.3048780487804878    -234.125    -132.711805096    10.36
-1000.0    1499.375    1499.75    1261.875    -0.4573170731707317    -237.5    -126.730677473    10.34
-1000.0    1499.375    1499.75    1262.25    -0.4573170731707317    -237.125    -126.713114434    10.34
-0.06    1499.5    1499.375    1261.0    0.1524390243902439    -238.5    -126.713114434    10.34
25.37    1499.375    1499.75    1258.875    -0.4573170731707317    -240.5    -123.33832998    10.33
-1000.0    1499.375    1499.75    1260.5    -0.4573170731707317    -238.875    -123.33832998    10.33
-1000.0    1499.375    1499.875    1261.625    -0.6097560975609756    -237.75    -123.355434741    10.33
-1000.0    1499.375    1499.75    1261.25    -0.4573170731707317    -238.125    -120.585681132    10.32
-1000.0    1499.375    1499.75    1258.375    -0.4573170731707317    -241.0    -120.602397197    10.32
-0.06    1499.5    1499.375    1261.5    0.1524390243902439    -238.0    -120.602397197    10.32
25.37    1499.375    1499.75    1262.25    -0.4573170731707317    -237.125    -117.412327485    10.31
-1000.0    1499.375    1499.625    1253.125    -0.3048780487804878    -246.25    -120.159084012    10.32
-1000.0    1499.5    1499.75    1252.0    -0.3048780487804878    -247.5    -122.936114199    10.33
-1000.0    1499.375    1499.625    1250.75    -0.3048780487804878    -248.625    -128.702380305    10.35
-1000.0    1499.375    1499.75    1262.25    -0.4573170731707317    -237.125    -134.814317644    10.37
-1000.0    1499.375    1499.625    1259.375    -0.3048780487804878    -240.0    -131.750248596    10.36
-0.06    1499.5    1499.25    1259.125    0.3048780487804878    -240.375    -131.731984854    10.36
25.37    1499.375    1499.75    1257.875    -0.4573170731707317    -241.5    -131.181041465    10.36
-1000.0    1499.375    1499.625    1251.625    -0.3048780487804878    -247.75    -134.231905295    10.37
-1000.0    1499.375    1499.625    1258.125    -0.3048780487804878    -241.25    -137.334773845    10.38
-1000.0    1499.375    1499.75    1257.375    -0.4573170731707317    -242.0    -140.587484108    10.39
-1000.0    1499.375    1499.625    1259.0    -0.3048780487804878    -240.375    -143.85745082    10.4
-1000.0    1499.375    1499.625    1259.875    -0.3048780487804878    -239.5    -140.587484108    10.39
-1000.0    1499.375    1499.625    1254.125    -0.3048780487804878    -245.25    -134.26915696    10.37
-1000.0    1499.375    1499.625    1256.5    -0.3048780487804878    -242.875    -134.26915696    10.37
-1000.0    1499.375    1499.625    1253.25    -0.3048780487804878    -246.125    -137.372891899    10.38
-1000.0    1499.375    1499.625    1260.125    -0.3048780487804878    -239.25    -140.567981796    10.39
