# wireless pH sensor data log
# Date: 20171015_17_09_37
# Temperature (â„ƒ), Voltage of RE (mV), Voltage of WE_Cl after TIA (mV), Voltage of WE_pH (mV), Free Cl Current (nA), pH Voltage (mV), Free Cl (ppm), pH Value
# 
28.19    1499.5    1499.25    1290.75    0.3048780487804878    -208.75    -0.219393130307    6.14
-1000.0    1499.375    1499.375    1269.125    0.0    -230.25    -0.229216776596    6.49
-1000.0    1499.25    1499.375    1267.0    -0.1524390243902439    -232.25    -0.254206112639    6.87
-1000.0    1499.375    1499.625    1266.375    -0.3048780487804878    -233.0    -0.31904050245    7.27
-1000.0    1499.375    1499.5    1264.75    -0.1524390243902439    -234.625    -0.494690690028    7.69
-1000.0    1499.25    1499.625    1265.75    -0.4573170731707317    -233.5    -0.956597304122    8.11
-1000.0    1499.25    1499.625    1275.25    -0.4573170731707317    -224.0    -2.12762927493    8.52
28.19    1499.5    1499.125    1276.625    0.4573170731707317    -222.875    -4.9919762271    8.92
-1000.0    1499.375    1499.625    1279.625    -0.3048780487804878    -219.75    -11.9468664942    9.31
-1000.0    1499.25    1499.75    1276.875    -0.6097560975609756    -222.375    -29.0322731506    9.7
-1000.0    1499.25    1499.625    1280.75    -0.4573170731707317    -218.5    -72.6523039995    10.1
-1000.0    1499.25    1499.75    1278.125    -0.6097560975609756    -221.125    -76.1193319304    10.12
-1000.0    1499.25    1499.625    1275.25    -0.4573170731707317    -224.0    -72.7431097945    10.1
-1000.0    1499.25    1499.75    1276.75    -0.6097560975609756    -222.5    -71.1117289846    10.09
-1000.0    1499.25    1499.625    1275.5    -0.4573170731707317    -223.75    -67.9393718152    10.07
-1000.0    1499.25    1499.75    1276.625    -0.6097560975609756    -222.625    -64.9089516688    10.05
-1000.0    1499.25    1499.75    1275.25    -0.6097560975609756    -224.0    -62.0055264871    10.03
-1000.0    1499.25    1499.75    1275.875    -0.6097560975609756    -223.375    -62.0141183658    10.03
-1000.0    1499.25    1499.625    1276.25    -0.4573170731707317    -223.0    -62.0742615167    10.03
-1000.0    1499.375    1499.75    1276.125    -0.4573170731707317    -223.25    -62.0828533954    10.03
-1000.0    1499.375    1499.75    1275.5    -0.4573170731707317    -223.875    -63.5153029984    10.04
-1000.0    1499.25    1499.625    1275.75    -0.4573170731707317    -223.5    -64.9899106482    10.05
-1000.0    1499.25    1499.75    1275.625    -0.6097560975609756    -223.625    -64.980915206    10.05
-1000.0    1499.25    1499.75    1276.375    -0.6097560975609756    -222.875    -64.9899106482    10.05
-1000.0    1499.25    1499.75    1276.125    -0.6097560975609756    -223.125    -64.9899106482    10.05
28.12    1499.5    1499.125    1276.375    0.4573170731707317    -223.125    -63.1280980657    10.04
-1000.0    1499.25    1499.75    1275.125    -0.6097560975609756    -224.125    -63.0669423276    10.04
-1000.0    1499.25    1499.625    1275.875    -0.4573170731707317    -223.375    -63.0669423276    10.04
28.06    1499.5    1499.125    1275.0    0.4573170731707317    -224.5    -61.2565824299    10.03
-1000.0    1499.25    1499.75    1275.875    -0.6097560975609756    -223.375    -62.626656173    10.04
-1000.0    1499.25    1499.75    1275.75    -0.6097560975609756    -223.5    -62.6353401359    10.04
-1000.0    1499.25    1499.625    1275.875    -0.4573170731707317    -223.375    -62.6440240988    10.04
28.06    1499.5    1499.0    1280.0    0.6097560975609756    -219.5    -60.8658751223    10.03
-1000.0    1499.125    1499.75    1279.5    -0.7621951219512195    -219.625    -59.4189123527    10.02
-1000.0    1499.25    1499.75    1281.0    -0.6097560975609756    -218.25    -58.0789086944    10.01
28.06    1499.5    1499.0    1285.0    0.6097560975609756    -214.5    -56.4373218461    10.0
-1000.0    1499.25    1499.625    1286.25    -0.4573170731707317    -213.0    -53.8984432706    9.98
-1000.0    1499.25    1499.5    1311.0    -0.3048780487804878    -188.25    -51.4741672914    9.96
28.81    1499.5    1499.125    1325.125    0.4573170731707317    -174.375    -43.5884748273    9.89
28.87    1499.5    1499.625    1287.625    -0.1524390243902439    -211.875    -35.2460476791    9.8
-1000.0    1499.375    1499.25    1292.5    0.1524390243902439    -206.875    -33.6540789812    9.78
-1000.0    1499.375    1499.5    1313.0    -0.1524390243902439    -186.375    -31.3984275651    9.75
-1000.0    1499.375    1499.5    1301.375    -0.1524390243902439    -198.0    -26.7446657893    9.68
28.87    1499.5    1499.375    1295.125    0.1524390243902439    -204.375    -23.7260534992    9.63
-1000.0    1499.25    1499.5    1294.75    -0.3048780487804878    -204.5    -22.6475368381    9.61
-1000.0    1499.375    1499.75    1291.5    -0.4573170731707317    -207.875    -21.1422161452    9.58
-1000.0    1499.25    1499.625    1319.5    -0.4573170731707317    -179.75    -20.6852319636    9.57
-1000.0    1499.25    1499.625    1288.75    -0.4573170731707317    -210.5    -18.0396576904    9.51
28.81    1499.5    1499.25    1304.125    0.3048780487804878    -195.375    -19.6453214968    9.55
28.75    1499.5    1499.5    1268.25    0.0    -231.25    -20.9161374289    9.58
28.75    1499.5    1499.5    1268.125    0.0    -231.375    -22.3855258786    9.61
-1000.0    1499.25    1499.5    1287.375    -0.3048780487804878    -211.875    -25.0989948033    9.66
-1000.0    1499.375    1499.625    1283.375    -0.3048780487804878    -216.0    -27.5073466426    9.7
-1000.0    1499.25    1499.5    1270.0    -0.3048780487804878    -229.25    -29.4661599335    9.73
-1000.0    1499.375    1499.625    1296.25    -0.3048780487804878    -203.125    -33.0538651931    9.78
85.0    1499.5    1499.25    1294.375    0.3048780487804878    -205.125    -28.1460838182    9.71
28.62    1499.5    1499.625    1292.125    -0.1524390243902439    -207.375    -26.2373402521    9.7
-1000.0    1499.25    1499.625    1299.875    -0.4573170731707317    -199.375    -29.4119438791    9.75
-1000.0    1499.25    1499.625    1309.0    -0.4573170731707317    -190.25    -28.0950706213    9.73
-1000.0    1499.25    1499.625    1288.625    -0.4573170731707317    -210.625    -27.4781041953    9.72
-1000.0    1499.375    1499.625    1321.75    -0.3048780487804878    -177.625    -25.0842364272    9.68
-1000.0    1499.375    1499.625    1297.375    -0.3048780487804878    -202.0    -20.4235526415    9.59
28.62    1499.5    1499.125    1278.375    0.4573170731707317    -221.125    -19.9532195651    9.58
28.56    1499.25    1499.75    1282.0    -0.6097560975609756    -217.25    -19.9304692468    9.58
-1000.0    1499.25    1499.625    1307.25    -0.4573170731707317    -192.0    -19.04560688    9.56
-1000.0    1499.375    1499.625    1281.875    -0.3048780487804878    -217.5    -18.1978102898    9.54
-1000.0    1499.25    1499.5    1291.875    -0.3048780487804878    -207.375    -19.0588242577    9.56
-1000.0    1499.25    1499.625    1285.875    -0.4573170731707317    -213.375    -19.0614677333    9.56
-1000.0    1499.25    1499.75    1296.375    -0.6097560975609756    -202.875    -20.4138024182    9.59
-1000.0    1499.375    1499.625    1276.875    -0.3048780487804878    -222.5    -21.3716374247    9.61
-1000.0    1499.25    1499.625    1285.125    -0.4573170731707317    -214.125    -22.3685472563    9.63
-1000.0    1499.375    1499.625    1305.0    -0.3048780487804878    -194.375    -25.6634490268    9.69
-1000.0    1499.25    1499.625    1312.125    -0.4573170731707317    -187.125    -25.0827562721    9.68
28.56    1499.5    1499.0    1312.875    0.6097560975609756    -186.625    -21.8753620686    9.62
-1000.0    1499.25    1499.625    1282.125    -0.4573170731707317    -217.125    -19.4914234363    9.57
-1000.0    1499.25    1499.625    1276.0    -0.4573170731707317    -223.25    -21.3571975553    9.61
-1000.0    1499.375    1499.625    1276.25    -0.3048780487804878    -223.125    -21.8541466867    9.62
-1000.0    1499.25    1499.625    1275.875    -0.4573170731707317    -223.375    -23.4062242092    9.65
-0.06    1499.375    1499.0    1276.75    0.4573170731707317    -222.625    -24.5021324245    9.67
-1000.0    1499.25    1499.625    1277.125    -0.4573170731707317    -222.125    -26.218115517    9.7
-1000.0    1499.25    1499.625    1278.125    -0.4573170731707317    -221.125    -26.2217550213    9.7
-1000.0    1499.25    1499.625    1277.25    -0.4573170731707317    -222.0    -26.8289859486    9.71
-1000.0    1499.375    1499.625    1277.375    -0.3048780487804878    -222.0    -30.088184954    9.76
-1000.0    1499.375    1499.625    1276.25    -0.3048780487804878    -223.125    -34.5184707088    9.82
-1000.0    1499.25    1499.625    1276.0    -0.4573170731707317    -223.25    -39.6428999966    9.88
-1000.0    1499.25    1499.625    1276.625    -0.4573170731707317    -222.625    -40.562746592    9.89
-1000.0    1499.25    1499.625    1277.0    -0.4573170731707317    -222.25    -40.562746592    9.89
-1000.0    1499.25    1499.625    1277.25    -0.4573170731707317    -222.0    -40.5683719001    9.89
-1000.0    1499.25    1499.75    1277.625    -0.6097560975609756    -221.625    -40.5683719001    9.89
-1000.0    1499.375    1499.75    1276.75    -0.4573170731707317    -222.625    -40.6077490567    9.89
-1000.0    1499.25    1499.625    1275.875    -0.4573170731707317    -223.375    -40.6077490567    9.89
-1000.0    1499.25    1499.625    1277.5    -0.4573170731707317    -221.75    -40.6077490567    9.89
-1000.0    1499.375    1499.75    1275.0    -0.4573170731707317    -224.375    -40.6077490567    9.89
-1000.0    1499.375    1499.625    1275.25    -0.3048780487804878    -224.125    -40.6133743648    9.89
-1000.0    1499.25    1499.625    1276.5    -0.4573170731707317    -222.75    -41.5558217748    9.9
-1000.0    1499.25    1499.75    1274.625    -0.6097560975609756    -224.625    -41.5558217748    9.9
28.37    1499.5    1499.125    1276.0    0.4573170731707317    -223.5    -41.5698061144    9.9
28.25    1499.5    1499.625    1274.25    -0.1524390243902439    -225.25    -41.5517156241    9.9
-1000.0    1499.25    1499.625    1274.625    -0.4573170731707317    -224.625    -42.5042303771    9.91
-1000.0    1499.25    1499.75    1276.125    -0.6097560975609756    -223.125    -42.4983374554    9.91
-1000.0    1499.25    1499.625    1274.125    -0.4573170731707317    -225.125    -42.5042303771    9.91
-1000.0    1499.25    1499.625    1273.375    -0.4573170731707317    -225.875    -43.4907188802    9.92
-0.06    1499.375    1499.125    1276.375    0.3048780487804878    -223.0    -43.4907188802    9.92
28.19    1499.25    1499.75    1277.5    -0.6097560975609756    -221.75    -43.4819165596    9.92
-1000.0    1499.25    1499.625    1277.125    -0.4573170731707317    -222.125    -43.4939818661    9.92
-1000.0    1499.25    1499.625    1278.75    -0.4573170731707317    -220.5    -43.4939818661    9.92
-1000.0    1499.375    1499.625    1295.5    -0.3048780487804878    -203.875    -42.5015267267    9.91
