# wireless pH sensor data log
# Date: 20171020_14_37_29
# Temperature (â„ƒ), Voltage of pH, ref to RE (mV), Free Cl Current (nA), pH Value, Free Cl (ppm)
# 
23.69    -0.0625    1200.25    6.14    -0.219393130307
23.69    -0.0625    1200.5    6.14    -0.0987499869694
23.69    -0.0625    1200.5    6.14    0.0206788217668
23.69    0.0625    1198.0    6.14    0.138887702343
23.69    0.25    1201.0    6.14    0.255650542632
23.69    0.5    1203.5    6.14    0.371526255321
23.69    0.0    1198.5    6.14    0.486480095833
23.69    0.0    1198.75    6.14    0.599801927651
23.69    0.0    1199.25    6.14    0.712021036727
23.69    -0.0625    1199.0    6.14    0.823178085955
23.69    0.0    1199.5    6.14    0.933217771549
23.69    -0.125    1199.5    6.14    0.933146404619
23.69    0.0    1200.0    6.14    0.933051248711
23.69    0.0    1200.0    6.14    0.933003670758
23.69    -0.0625    1199.5    6.14    0.933193982572
23.69    -0.0625    1199.75    6.14    0.933051248711
23.69    -0.0625    1199.5    6.14    0.932694414059
23.69    0.0    1199.25    6.14    0.932789569966
23.69    0.0    1199.25    6.14    0.93283714792
23.69    0.0    1199.25    6.14    0.93283714792
23.69    0.0    1199.25    6.14    0.932860936897
23.69    0.0625    1199.5    6.14    0.93283714792
23.69    -0.0625    1199.75    6.14    0.93283714792
23.69    0.0    1199.75    6.14    0.932813358943
23.69    0.0    1200.0    6.14    0.932789569966
23.69    -0.0625    1200.0    6.14    0.93283714792
23.69    0.0    1200.0    6.14    0.932860936897
23.69    0.0    1199.25    6.14    0.93290851485
23.69    0.0    1199.75    6.14    0.93290851485
23.69    -0.0625    1199.25    6.14    0.932956092804
23.69    -0.0625    1199.25    6.14    0.932956092804
23.69    0.0625    1199.0    6.14    0.932956092804
23.69    0.0    1200.75    6.14    0.93290851485
23.69    -0.0625    1199.75    6.14    0.933003670758
23.69    -0.0625    1199.5    6.14    0.933003670758
23.69    -0.0625    1200.0    6.14    0.932956092804
23.75    0.0    1200.25    6.14    0.932956092804
23.69    0.0    1200.5    6.14    0.932816872842
23.69    -0.0625    1200.25    6.14    0.932935796944
23.75    -0.0625    1200.25    6.14    0.932983366585
23.69    -0.125    1200.0    6.14    0.932915509503
23.75    0.0    1200.0    6.14    0.932986851499
23.69    -0.0625    1199.5    6.14    0.932919006986
23.69    0.0    1199.5    6.14    0.932800124425
23.69    0.0    1199.25    6.14    0.932776347913
23.69    0.0625    1199.75    6.14    0.932752571401
23.75    -0.0625    1199.5    6.14    0.932728794888
23.75    -0.0625    1200.0    6.14    0.932657465352
23.75    0.0    1200.0    6.14    0.932447057369
23.75    -0.125    1200.0    6.14    0.932260492391
23.75    -0.0625    1200.25    6.14    0.932236724181
23.75    0.0    1200.25    6.14    0.932097757931
23.75    0.0    1200.0    6.14    0.932121521992
23.75    0.0    1200.0    6.14    0.932006361338
23.75    0.0625    1199.75    6.14    0.931891242196
23.75    0.0    1199.75    6.14    0.931776164546
23.75    0.0625    1199.75    6.14    0.931613633403
23.75    -0.0625    1199.75    6.14    0.931637380883
23.75    0.0    1200.25    6.14    0.931613633403
