# wireless pH sensor data log
# Date: 20171015_17_03_19
# Temperature (â„ƒ), Voltage of RE (mV), Voltage of WE_Cl after TIA (mV), Voltage of WE_pH (mV), Free Cl Current (nA), pH Voltage (mV), Free Cl (ppm), pH Value
# 
30.0    1499.375    1499.5    1274.625    -0.1524390243902439    -224.75    -0.219393130307    6.14
30.0    1499.5    1499.25    1273.625    0.3048780487804878    -225.875    -0.224808965451    6.51
-1000.0    1499.25    1499.625    1283.625    -0.4573170731707317    -215.625    -0.249690038668    6.88
-1000.0    1499.25    1499.625    1282.125    -0.4573170731707317    -217.125    -0.310668399317    7.26
-1000.0    1499.25    1499.625    1281.75    -0.4573170731707317    -217.5    -0.456885847107    7.64
30.06    1499.5    1499.125    1281.625    0.4573170731707317    -217.875    -0.811851081918    8.03
30.06    1499.5    1499.75    1282.125    -0.3048780487804878    -217.375    -1.64886903506    8.41
-1000.0    1499.375    1499.625    1282.875    -0.3048780487804878    -216.5    -3.68128111864    8.79
-1000.0    1499.25    1499.625    1282.75    -0.4573170731707317    -216.5    -8.55797624316    9.17
30.06    1499.5    1499.125    1282.75    0.4573170731707317    -216.75    -20.1069260119    9.55
30.06    1499.125    1499.625    1281.875    -0.6097560975609756    -217.25    -46.510903524    9.92
-1000.0    1499.25    1499.625    1282.5    -0.4573170731707317    -216.75    -44.4445395574    9.9
-1000.0    1499.25    1499.625    1287.0    -0.4573170731707317    -212.25    -43.4672948415    9.89
-1000.0    1499.25    1499.625    1288.625    -0.4573170731707317    -210.625    -42.4821405951    9.88
-1000.0    1499.25    1499.625    1287.375    -0.4573170731707317    -211.875    -41.5194111972    9.87
-1000.0    1499.25    1499.625    1287.25    -0.4573170731707317    -212.0    -40.5785961958    9.86
-1000.0    1499.375    1499.625    1290.5    -0.3048780487804878    -208.875    -39.6922150885    9.85
-0.06    1499.375    1499.125    1283.25    0.3048780487804878    -216.125    -38.7929957135    9.84
30.37    1499.25    1499.625    1271.625    -0.4573170731707317    -227.625    -36.7670913252    9.82
-1000.0    1499.375    1499.625    1266.875    -0.3048780487804878    -232.5    -38.4911978815    9.84
-1000.0    1499.25    1499.625    1269.125    -0.4573170731707317    -230.125    -41.2594976786    9.87
-1000.0    1499.25    1499.5    1267.625    -0.3048780487804878    -231.625    -43.1893309017    9.89
-1000.0    1499.25    1499.625    1269.125    -0.4573170731707317    -230.125    -46.2586184983    9.92
-1000.0    1499.25    1499.625    1268.375    -0.4573170731707317    -230.875    -49.5538355685    9.95
-1000.0    1499.25    1499.625    1266.875    -0.4573170731707317    -232.375    -54.3169379501    9.99
-1000.0    1499.25    1499.625    1264.75    -0.4573170731707317    -234.5    -58.188480429    10.02
30.37    1499.5    1499.0    1255.0    0.6097560975609756    -244.5    -61.8808763852    10.05
30.56    1499.5    1499.625    1245.875    -0.1524390243902439    -253.625    -68.8548061093    10.1
-1000.0    1499.25    1499.625    1260.875    -0.4573170731707317    -238.375    -80.9002450147    10.17
30.56    1499.5    1499.0    1251.875    0.6097560975609756    -247.625    -82.1852636565    10.18
30.56    1499.25    1499.625    1253.25    -0.4573170731707317    -246.0    -85.3703792294    10.2
-1000.0    1499.25    1499.625    1252.375    -0.4573170731707317    -246.875    -91.4639723372    10.23
-1000.0    1499.375    1499.625    1253.875    -0.3048780487804878    -245.5    -95.7799003726    10.25
-1000.0    1499.375    1499.625    1255.0    -0.3048780487804878    -244.375    -102.603728472    10.28
30.56    1499.5    1499.0    1254.875    0.6097560975609756    -244.625    -107.36697584    10.3
30.5    1499.25    1499.625    1254.875    -0.4573170731707317    -244.375    -114.869089212    10.33
30.5    1499.5    1499.25    1254.375    0.3048780487804878    -245.125    -117.498376927    10.34
-1000.0    1499.25    1499.625    1253.25    -0.4573170731707317    -246.0    -117.531039136    10.34
-1000.0    1499.25    1499.75    1254.375    -0.6097560975609756    -244.875    -114.891438883    10.33
-1000.0    1499.25    1499.625    1251.5    -0.4573170731707317    -247.75    -117.580032449    10.34
-1000.0    1499.25    1499.625    1252.125    -0.4573170731707317    -247.125    -117.69435018    10.34
-1000.0    1499.25    1499.625    1254.0    -0.4573170731707317    -245.25    -117.69435018    10.34
-1000.0    1499.25    1499.625    1265.375    -0.4573170731707317    -233.875    -117.69435018    10.34
-0.06    1499.375    1499.0    1261.25    0.4573170731707317    -238.125    -112.420378723    10.32
30.56    1499.25    1499.625    1261.5    -0.4573170731707317    -237.75    -109.749350795    10.31
-1000.0    1499.25    1499.625    1272.25    -0.4573170731707317    -227.0    -107.35919831    10.3
-1000.0    1499.25    1499.625    1300.875    -0.4573170731707317    -198.375    -100.204622183    10.27
-1000.0    1499.25    1499.625    1282.625    -0.4573170731707317    -216.625    -81.5372573826    10.18
-1000.0    1499.375    1499.625    1301.125    -0.3048780487804878    -198.25    -72.6883994614    10.13
-1000.0    1499.25    1499.625    1265.0    -0.4573170731707317    -234.25    -60.4710305778    10.05
-1000.0    1499.375    1499.75    1276.75    -0.4573170731707317    -222.625    -57.7569336356    10.03
-1000.0    1499.375    1499.625    1265.875    -0.3048780487804878    -233.5    -52.6897053476    9.99
-1000.0    1499.25    1499.625    1269.875    -0.4573170731707317    -229.375    -50.3188483987    9.97
-1000.0    1499.25    1499.625    1269.75    -0.4573170731707317    -229.5    -49.1772683705    9.96
-1000.0    1499.25    1499.625    1269.375    -0.4573170731707317    -229.875    -47.0105524782    9.94
-1000.0    1499.25    1499.625    1263.5    -0.4573170731707317    -235.75    -45.9442816345    9.93
-1000.0    1499.25    1499.625    1261.625    -0.4573170731707317    -237.625    -48.1016599604    9.95
30.56    1499.5    1499.125    1262.5    0.4573170731707317    -237.0    -55.180534039    10.01
30.75    1499.5    1499.75    1262.75    -0.3048780487804878    -236.75    -60.4129809676    10.05
-1000.0    1499.25    1499.625    1261.875    -0.4573170731707317    -237.375    -69.3386025622    10.11
-1000.0    1499.375    1499.625    1260.0    -0.3048780487804878    -239.375    -70.9498100875    10.12
30.75    1499.625    1499.125    1262.125    0.6097560975609756    -237.5    -75.9779117144    10.15
30.69    1499.25    1499.75    1262.0    -0.6097560975609756    -237.25    -77.6548996481    10.16
-1000.0    1499.25    1499.625    1262.875    -0.4573170731707317    -236.375    -79.4708585243    10.17
-1000.0    1499.25    1499.625    1262.625    -0.4573170731707317    -236.625    -81.3180871811    10.18
-1000.0    1499.25    1499.625    1261.5    -0.4573170731707317    -237.75    -83.2083433209    10.19
-1000.0    1499.25    1499.625    1263.125    -0.4573170731707317    -236.125    -85.1426291822    10.2
-0.06    1499.5    1499.125    1261.25    0.4573170731707317    -238.25    -83.2083433209    10.19
30.56    1499.25    1499.625    1269.25    -0.4573170731707317    -230.0    -85.1335670147    10.2
-1000.0    1499.25    1499.75    1272.875    -0.6097560975609756    -226.375    -81.3207144102    10.18
-1000.0    1499.25    1499.75    1274.0    -0.6097560975609756    -225.25    -77.678962663    10.16
-1000.0    1499.25    1499.625    1273.875    -0.4573170731707317    -225.375    -74.210926897    10.14
-1000.0    1499.25    1499.625    1272.125    -0.4573170731707317    -227.125    -70.9472105607    10.12
-1000.0    1499.25    1499.625    1272.75    -0.4573170731707317    -226.5    -67.7521872082    10.1
-1000.0    1499.25    1499.5    1294.625    -0.3048780487804878    -204.625    -64.7103520264    10.08
-1000.0    1499.25    1499.5    1299.25    -0.3048780487804878    -200.0    -57.6833262122    10.03
